; WAVELENGTH 50.20000 50.20000 60.20000 60.20000 70.20000 70.20000
190.13558 45.74309 168.36886 55.11351 170.81765 56.03301 118.52958 
190.59492 47.53618 187.30627 51.39424 188.23138 59.31680 134.17020 
191.05422 47.37004 185.94586 51.26958 172.11978 60.60230 117.52645 
191.51348 47.43735 187.30295 52.02393 173.36390 55.50621 117.33932 
191.97269 47.06779 200.36111 51.43723 173.75108 56.79514 117.10291 
192.43185 45.43783 202.40732 53.24003 193.23418 57.58624 120.96516 
192.89096 46.50742 181.58228 52.41913 158.53678 55.95466 106.03752 
193.35003 46.79688 187.20112 52.80566 169.82567 57.53773 111.15702 
193.80905 46.74297 192.34531 52.02651 168.93016 54.24841 107.18885 
194.26803 47.22915 182.43138 52.19132 154.63453 53.52888 102.56603 
194.72696 46.13682 180.71299 51.71351 149.11166 52.15014 99.56959 
195.18585 48.01905 178.97113 53.24040 150.10073 53.06351 99.31308 
195.64468 46.94933 180.53458 53.78529 151.38196 51.92841 94.09449 
196.10348 48.34815 179.95968 52.89333 150.21178 51.59306 93.38571 
196.56222 48.67082 177.33153 51.93635 145.13671 50.32404 90.90946 
197.02092 48.77536 177.99297 52.59504 145.37077 49.89459 88.86422 
197.47958 48.74459 176.90803 51.56758 145.65078 49.95462 88.26407 
197.93819 47.96402 180.95180 51.42238 140.81631 49.63645 85.99280 
198.39675 49.19949 173.05004 51.89712 137.29825 49.93128 85.86544 
198.85527 48.86634 174.09546 50.97800 135.81857 48.61566 82.91895 
199.31375 48.48374 164.99453 50.49691 130.16497 48.61358 80.94341 
199.77218 48.44667 170.16191 50.83184 131.83914 48.00955 83.08752 
200.23056 49.22850 169.28879 49.95616 129.71478 47.24818 80.55436 
200.68890 49.16886 165.40559 49.76913 126.08516 46.88870 79.87771 
201.14719 48.82430 164.44197 49.14342 124.14502 46.03245 79.50122 
201.60544 48.83490 160.04603 49.24399 122.64652 46.33714 78.87417 
202.06364 48.90247 161.41488 49.54352 121.43091 46.28035 77.97605 
202.52180 49.23688 160.03701 48.85955 121.79052 45.59304 76.35729 
202.97991 48.77191 159.33137 48.36446 118.92437 45.58340 76.32596 
203.43798 48.96948 158.24201 48.50156 118.14280 44.91212 76.20367 
203.89600 48.75938 157.78347 47.88066 117.32851 45.07869 75.16681 
204.35398 48.49286 155.59731 47.63944 116.60467 45.10537 75.68572 
204.81191 48.58446 153.45751 47.43858 114.85685 44.58147 75.15318 
205.26980 48.55540 151.95107 47.39224 114.12800 44.50154 75.14339 
205.72765 48.27628 148.66151 46.84915 112.76028 43.98561 74.79820 
206.18545 48.47256 150.38595 46.45506 111.96597 43.62469 74.55651 
206.64320 48.25166 148.40149 46.32731 111.38153 43.73892 74.23475 
207.10092 47.84607 147.45526 45.87854 110.75833 43.56100 74.13004 
207.55858 47.65465 145.33368 45.69319 109.60418 42.97884 74.03030 
208.01621 47.72261 145.74228 45.41197 109.11377 42.82740 73.10600 
208.47379 47.55033 143.62221 45.26883 109.49284 42.87420 73.36782 
208.93132 47.43054 142.94194 44.92270 108.13930 42.88740 73.16449 
209.38881 47.20854 142.37264 44.82356 107.42360 42.63185 74.42160 
209.84626 47.09449 141.80031 44.55861 107.82255 42.54536 73.90839 
210.30366 46.84071 140.00710 44.28785 107.08389 42.36122 73.73476 
210.76102 46.37241 139.70590 44.09005 106.85190 42.34801 73.99572 
211.21834 46.49984 138.90211 43.88481 106.45004 42.07062 73.92237 
211.67561 46.23505 137.97508 43.81411 106.22392 42.04226 74.21377 
212.13284 46.09424 137.87696 43.74020 105.57535 41.73839 74.49296 
212.59002 45.86548 137.56555 43.32498 105.57235 41.65049 74.71697 
213.04716 45.83195 137.24670 43.25258 105.60684 41.70764 74.85215 
213.50426 45.35865 136.43505 43.04027 105.62091 41.50425 75.30511 
213.96131 45.55633 135.65482 42.95578 105.52337 41.37724 74.90883 
214.41833 45.19017 134.63816 42.91249 105.54510 41.35313 75.17252 
214.87529 45.09267 134.69481 42.61124 105.18220 40.94400 75.90914 
215.33222 44.89435 133.63076 42.57059 105.26819 40.82996 75.97255 
215.78910 44.75287 133.94407 42.23888 105.07260 40.95120 76.44663 
216.24594 44.55342 133.44897 42.18897 105.37734 40.68234 76.62300 
216.70273 44.53826 133.27311 41.98605 105.43115 40.53875 77.03577 
217.15949 44.29470 133.11625 41.94266 105.63402 40.40903 77.31141 
217.61620 44.11842 132.65789 41.72907 105.81233 40.39922 77.71774 
218.07286 44.11305 132.43440 41.67944 106.12673 40.23965 77.89885 
218.52949 43.86938 131.97662 41.66072 106.20963 40.13378 78.52992 
218.98607 43.78559 132.04138 41.37731 106.43929 40.08335 78.79793 
219.44261 43.70224 131.82091 41.25324 106.67875 39.85993 79.08472 
219.89910 43.50241 131.88647 41.25258 106.55129 39.81901 79.93256 
220.35556 43.33898 131.37929 41.01162 106.61003 39.70542 80.07155 
220.81197 43.33732 131.22070 40.89493 106.86221 39.70619 80.65776 
221.26834 43.12774 131.27674 40.93655 107.20832 39.49836 80.78888 
221.72466 42.96890 131.48216 40.91339 107.73131 39.38649 81.46095 
222.18095 42.96477 131.55410 40.73851 107.84016 39.46021 81.66145 
222.63719 42.77478 131.34110 40.72868 108.20109 39.18617 82.24438 
223.09339 42.66165 131.37334 40.45251 108.55268 39.09018 82.97606 
223.54954 42.60298 131.45733 40.41790 108.86315 38.92001 83.64667 
224.00566 42.53549 131.63803 40.29886 109.25604 38.94332 84.13664 
224.46173 42.47623 131.21429 40.25989 109.81710 38.64624 84.85991 
224.91776 42.26648 131.67135 40.21878 110.14832 38.77906 85.18258 
225.37375 42.10966 131.82985 40.06835 110.51371 38.57505 85.69465 
225.82970 41.95686 131.99006 39.92774 110.85253 38.49801 86.40573 
226.28561 42.15649 132.35342 39.77636 111.27440 38.37913 87.01210 
226.74147 41.87551 132.28846 39.71714 111.62593 38.18645 87.61697 
227.19729 41.82375 132.14164 39.62979 112.16848 38.18574 88.06834 
227.65308 41.76795 132.56277 39.52966 112.45455 37.83165 88.66668 
228.10881 41.67576 132.89935 39.41653 112.94933 37.83604 89.26544 
228.56451 41.64098 132.78962 39.47172 113.42765 37.63192 89.76752 
229.02017 41.56679 132.82741 39.32839 113.69003 37.49208 90.48501 
229.47578 41.51224 133.11167 39.25865 114.08945 37.30101 91.17093 
229.93136 41.35161 133.50894 39.09262 114.60748 37.15988 91.59323 
230.38689 41.28425 133.65129 39.00069 115.12029 37.13666 92.13752 
230.84238 41.16153 133.84538 38.89510 115.64454 36.95213 92.96574 
231.29783 41.11457 134.04213 38.76782 116.07339 36.91387 93.66691 
231.75324 40.96037 134.27355 38.83316 116.34457 36.65389 93.88708 
232.20861 40.94322 134.44399 38.60700 116.86845 36.45883 94.50665 
232.66394 40.88997 134.94105 38.59232 117.13106 36.32161 95.41602 
233.11923 40.77026 135.28833 38.42333 117.63965 36.29473 96.04894 
233.57447 40.64536 135.21242 38.51650 118.05509 36.19892 96.46585 
234.02968 40.63811 135.44880 38.35016 118.43160 36.03002 97.19934 
234.48484 40.71356 135.83526 38.30388 118.78560 35.91958 97.70395 
234.93996 40.53486 135.93089 38.24667 119.25552 35.93769 98.08265 
235.39505 40.53481 135.76216 38.14796 119.45536 35.80633 98.59584 
235.85009 40.50046 136.15075 38.10840 119.91852 35.70776 99.57102 
236.30509 40.43855 136.56146 38.07981 120.49018 35.55574 99.95487 
236.76005 40.50573 136.80147 38.05038 120.91629 35.50115 100.74181 
237.21497 40.42787 136.92231 37.97106 121.34951 35.40820 101.25891 
237.66986 40.36394 137.26033 37.96546 121.76407 35.27778 102.07088 
238.12470 40.40410 137.67908 37.93122 122.47132 35.26967 102.61029 
238.57950 40.40784 137.82459 37.90905 122.73680 35.17812 103.23280 
239.03426 40.27997 138.21240 37.88101 122.94170 35.04886 103.91992 
239.48898 40.24657 138.32644 37.87159 123.67903 35.03854 104.69820 
239.94366 40.24155 138.69673 37.82472 124.19713 34.90863 105.33960 
240.39830 40.27543 138.95166 37.89289 124.59112 34.93500 105.72666 
240.85290 40.19988 139.32107 37.80616 125.01018 34.86591 106.57740 
241.30746 40.30071 139.44756 37.86583 125.42911 34.75558 107.28724 
241.76198 40.33356 139.89404 37.84192 125.97726 34.80950 108.13769 
242.21646 40.21629 140.28149 37.70971 126.70801 34.76957 108.84359 
242.67090 40.24058 140.51030 37.82852 126.91871 34.70694 109.61185 
243.12530 40.26210 140.47365 37.82306 127.70604 34.71103 110.43192 
243.57967 40.25600 141.15139 37.97254 128.01248 34.63412 111.17863 
244.03399 40.24467 141.10473 37.84034 128.55162 34.56147 112.01869 
244.48827 40.22236 141.85279 37.85516 129.00457 34.53153 112.67325 
244.94251 40.25300 142.09686 37.83650 129.62373 34.48308 113.56351 
245.39672 40.24237 142.06725 37.85066 130.15905 34.47174 114.45775 
245.85088 40.23451 142.54145 37.83472 130.59855 34.33181 115.28685 
246.30501 40.32820 143.00877 37.86849 131.12961 34.33880 115.89152 
246.75910 40.33418 143.36806 37.88258 132.11354 34.27742 116.94721 
247.21314 40.35029 143.58897 37.75825 132.50622 34.30382 117.87433 
247.66715 40.32015 144.01179 37.85091 132.94631 34.24130 118.84606 
248.12112 40.34760 144.39903 37.91913 133.21031 34.23131 119.69358 
248.57505 40.31866 144.48895 37.91611 133.82203 34.19267 120.64314 
249.02894 40.45414 144.93482 37.89944 134.55322 34.22329 121.33345 
249.48279 40.30943 145.55180 37.97452 135.16976 34.19360 122.25769 
249.93661 40.42113 145.70149 37.92050 135.71987 34.08795 123.26803 
250.39038 40.39434 146.00405 37.95389 136.18290 34.15625 124.45789 
250.84412 40.50083 146.43944 38.04274 136.84991 34.09559 125.44903 
251.29782 40.48976 146.98570 37.96150 137.47316 34.06289 126.27032 
251.75148 40.56189 147.41571 37.96074 138.15588 34.15351 127.07826 
252.20510 40.56494 147.56047 37.99984 138.50512 33.98789 128.22689 
252.65868 40.47149 147.77833 38.03515 139.18036 34.06300 129.10952 
253.11222 40.64982 148.16010 38.03108 139.73948 34.03819 129.93745 
253.56573 40.48642 148.63773 38.05082 140.51024 33.97788 130.82430 
254.01919 40.61062 149.03405 38.03741 140.84151 34.00211 132.19939 
254.47262 40.56825 149.33106 38.08459 141.50358 34.00890 133.33635 
254.92601 40.61933 149.67735 38.12349 142.48642 34.10782 133.90240 
255.37937 40.63707 150.08639 38.12946 143.00583 33.98311 134.94903 
255.83268 40.63995 150.42643 38.13687 143.55504 33.93100 136.06543 
256.28596 40.63214 150.86698 38.12207 143.97687 33.90483 137.18814 
256.73919 40.64585 151.27394 38.24795 144.73561 33.91887 138.27665 
257.19239 40.65220 151.48940 38.15811 145.25600 33.94577 139.45952 
257.64556 40.66218 151.95765 38.24162 145.91068 33.88140 140.38891 
258.09868 40.75944 152.36073 38.28661 146.29526 33.95650 141.30741 
258.55177 40.82057 152.88243 38.32866 147.27931 33.92096 142.56301 
259.00481 40.73339 153.09937 38.28518 147.88934 33.79982 143.78561 
259.45783 40.81514 153.60070 38.30953 148.50029 33.83470 144.82239 
259.91080 40.81092 154.08417 38.35138 149.12013 33.88984 146.07660 
260.36374 40.81735 154.38468 38.31400 149.75367 33.85552 146.80400 
260.81663 40.85161 154.52475 38.37765 150.31376 33.97010 148.07952 
261.26949 40.90552 154.84830 38.36653 150.98285 33.92430 148.90023 
261.72232 40.98503 155.43770 38.51245 151.59697 33.97417 150.35683 
262.17510 40.92909 155.82087 38.38279 152.15942 33.96121 151.18973 
262.62785 40.88123 155.98013 38.45028 152.99642 34.02097 152.53431 
263.08056 40.96504 156.47331 38.48146 153.53225 33.97798 153.74749 
263.53324 40.96917 156.96112 38.50010 153.98989 34.13252 154.58071 
263.98587 40.99378 157.27490 38.56090 154.94755 34.08492 155.54581 
264.43847 41.06661 157.83326 38.57141 155.39608 34.14711 157.14074 
264.89104 41.06453 157.97747 38.60279 156.19053 34.00109 157.83205 
265.34356 41.10809 158.31664 38.63344 156.53323 34.14369 159.14260 
265.79605 41.08821 158.94566 38.62306 157.42623 34.23507 160.53173 
266.24850 41.07457 159.47047 38.63562 157.85868 34.25768 161.78834 
266.70092 41.13865 159.45658 38.71497 158.65797 34.17773 162.61719 
267.15330 41.09971 160.07694 38.58855 159.38467 34.22536 164.23770 
267.60564 41.15474 160.59343 38.75204 160.28170 34.19897 165.46552 
268.05794 41.18444 160.88513 38.73011 160.75666 34.22809 166.24559 
268.51021 41.18784 161.40144 38.78900 161.43099 34.27803 167.89669 
268.96244 41.20606 161.46647 38.73986 161.99566 34.22661 168.99704 
269.41464 41.21579 162.72503 38.70552 162.89682 34.33494 170.68056 
269.86680 41.22336 162.65409 38.83043 163.50383 34.29751 171.42402 
270.31892 41.22278 163.23492 38.78592 164.31565 34.29916 172.64542 
270.77101 41.22140 163.87484 38.68055 165.24224 34.34888 173.96922 
271.22305 41.20619 163.89413 38.83676 165.71697 34.27295 175.21906 
271.67507 41.21963 164.29778 38.73427 166.29917 34.26469 176.15420 
272.12704 41.12916 164.45370 38.72964 166.93468 34.32365 177.58459 
272.57898 41.23689 165.05872 38.84910 167.66352 34.33939 178.91057 
273.03089 41.19735 165.74896 38.76428 168.51665 34.38034 179.70528 
273.48276 41.19361 166.44035 38.77452 169.53251 34.38349 181.51919 
273.93459 41.22070 166.69659 38.82304 169.92493 34.39219 182.70579 
274.38639 41.21619 166.93623 38.73948 170.55844 34.33925 183.86350 
274.83815 41.19360 167.61468 38.67233 171.14510 34.41846 184.90187 
275.28987 41.13145 167.81105 38.76049 172.02833 34.39839 186.25024 
275.74156 41.18555 168.02048 38.66738 172.75355 34.36142 187.46198 
276.19321 41.12713 168.54354 38.71676 173.48624 34.25165 188.46525 
276.64483 41.11929 169.30178 38.61431 174.33021 34.23974 189.84011 
277.09641 41.12755 169.01271 38.65783 174.40165 34.28673 190.08817 
277.54796 41.17111 169.53813 38.59946 175.07643 34.31623 191.61370 
277.99947 41.10394 170.00818 38.60708 175.68550 34.21533 192.81051 
278.45094 41.06001 170.60063 38.50621 176.35353 34.24209 194.12158 
278.90238 41.05768 170.69221 38.53239 176.86146 34.16278 194.69582 
279.35378 41.04183 171.15123 38.43642 177.55179 34.17224 195.96263 
279.80515 41.00546 171.37195 38.40412 177.92241 34.11762 196.97382 
280.25648 41.01471 171.98141 38.49229 178.91274 34.12851 197.84304 
280.70778 41.02010 172.49549 38.33739 179.66933 34.22910 199.23375 
281.15904 40.92957 172.50128 38.40154 180.03321 34.09211 199.96993 
281.61027 40.87571 173.52541 38.32419 180.68585 34.19107 201.49551 
282.06146 40.97566 173.36873 38.43485 181.48350 34.18219 202.50374 
282.51262 40.94599 173.90789 38.31455 182.27631 34.14468 203.68147 
282.96374 40.91835 174.08599 38.27900 182.53572 34.15515 204.18256 
283.41483 40.88878 174.47534 38.23221 183.05621 34.16314 205.40674 
283.86588 40.87893 175.19261 38.18184 184.27354 34.20041 206.44928 
284.31689 40.84841 175.21107 38.12333 184.47252 34.10173 207.36986 
284.76787 40.79971 175.38874 38.10622 184.91962 33.94886 208.23752 
285.21882 40.78198 175.96054 38.01203 185.13862 33.99589 209.24562 
285.66973 40.75651 176.80372 38.03396 186.52142 33.95485 210.69930 
286.12061 40.69634 177.08488 38.00430 186.94644 33.86604 211.48556 
286.57145 40.70438 176.85698 37.95743 187.07849 33.92511 212.08785 
287.02226 40.65420 177.72167 37.93969 188.40862 33.90503 213.20233 
287.47303 40.55485 177.68078 37.86890 188.55566 33.90656 214.36176 
287.92377 40.50445 178.17478 37.70695 189.06240 33.77959 215.00304 
288.37448 40.53098 178.20598 37.70667 189.47142 33.83340 215.99670 
288.82515 40.47829 179.07663 37.60545 190.71631 33.83686 217.39166 
289.27578 40.42696 179.38916 37.56709 191.14747 33.71556 218.08482 
289.72638 40.36803 179.64099 37.45234 191.28667 33.57209 218.98480 
290.17695 40.35014 180.53192 37.39226 192.37815 33.70049 220.23208 
290.62748 40.23822 180.42648 37.31561 192.93723 33.51577 220.97884 
291.07798 40.25900 180.53727 37.36882 193.21852 33.34817 221.41028 
291.52844 40.10674 180.79493 37.18558 193.46995 33.36222 222.21118 
291.97887 40.13451 181.51813 37.12637 194.27697 33.40919 223.23005 
292.42927 40.04674 181.39206 36.99923 194.64753 33.26894 223.52988 
292.87963 39.95646 181.86624 36.82672 195.27147 33.16051 224.47608 
293.32996 39.89564 181.93719 36.88804 195.31391 32.95761 225.07620 
293.78025 39.84835 182.58188 36.76423 196.13590 33.08914 226.21086 
294.23051 39.80847 183.07611 36.71388 196.48519 33.11410 226.91928 
294.68074 39.77870 183.24623 36.66146 197.04801 32.94845 227.59780 
295.13093 39.63396 182.95690 36.55241 196.93313 32.88343 227.64038 
295.58109 39.65952 183.56543 36.45811 197.66044 32.77498 228.41021 
296.03121 39.56608 184.13090 36.42801 198.45455 32.76023 229.45895 
296.48130 39.53864 184.40656 36.38080 199.34064 32.95466 230.53222 
296.93136 39.54153 184.21914 36.28905 198.92616 32.81312 230.47001 
297.38139 39.47202 184.32103 36.15151 199.06593 32.67913 230.96385 
297.83138 39.41560 185.06960 36.12454 199.82623 32.73716 231.77639 
298.28133 39.38240 184.88356 36.09074 200.13412 32.64670 232.10312 
298.73126 39.29613 185.30063 36.13558 200.83781 32.63715 232.87862 
299.18115 39.29248 185.69349 36.06410 200.99005 32.54373 233.24506 
299.63100 39.20492 185.63044 36.00721 201.57207 32.65071 234.11824 
300.08083 39.21345 185.78048 35.90620 201.20009 32.59343 234.14003 
300.53062 39.12281 186.15133 35.84154 201.75086 32.63813 234.90749 
300.98037 39.08759 186.03088 35.74872 202.30103 32.59075 235.11672 
301.43010 39.14866 186.53255 35.79440 202.52384 32.61670 235.69395 
301.87979 39.05530 186.81282 35.78937 202.83983 32.54307 236.31420 
302.32944 38.97820 186.84645 35.64991 203.34543 32.47109 236.75062 
302.77907 38.88356 186.87981 35.71004 203.40758 32.48654 237.30007 
303.22866 38.93244 187.16184 35.65754 203.89533 32.42981 237.68024 
303.67822 38.92096 187.55049 35.66576 204.35692 32.56356 238.04000 
304.12774 38.98534 188.28472 35.58022 204.75317 32.47717 238.71782 
304.57723 38.87714 187.91305 35.48845 204.90034 32.58161 238.84390 
305.02669 38.84826 187.96921 35.58379 205.39928 32.48311 239.40844 
305.47612 38.82726 188.39495 35.50547 205.15994 32.51627 239.76629 
305.92551 38.77771 188.38540 35.50873 205.71519 32.59976 240.47261 
306.37487 38.74089 188.76469 35.52283 205.97011 32.67778 240.87447 
306.82420 38.70449 188.97251 35.48032 206.64575 32.52635 241.18530 
307.27350 38.78394 189.20012 35.39144 206.90779 32.80750 241.70167 
307.72276 38.78488 189.43585 35.47249 207.22925 32.80712 242.06646 
308.17199 38.66181 189.55619 35.32892 207.31537 32.73177 242.51899 
308.62119 38.64437 189.87138 35.34194 207.71441 32.78261 242.75498 
309.07036 38.59797 189.72807 35.33674 207.71574 32.67887 242.89397 
309.51949 38.70037 190.05344 35.42144 208.40881 32.86403 243.52785 
309.96859 38.62399 190.16155 35.43269 208.73493 32.81487 243.98883 
310.41766 38.49100 190.36763 35.33117 208.78279 32.89948 244.47392 
310.86670 38.59560 190.92525 35.37825 209.24669 32.71706 244.63311 
311.31570 38.48359 190.53444 35.23854 209.20557 32.94158 244.81909 
311.76467 38.58527 191.26129 35.24079 209.78957 32.90652 245.33637 
312.21361 38.55394 191.38426 35.28677 209.96014 33.02738 245.61135 
312.66252 38.61412 191.35622 35.25394 210.20789 33.01302 246.00842 
313.11140 38.51517 191.55620 35.32053 210.49225 32.97205 246.20722 
313.56024 38.48073 191.93533 35.24903 210.83679 33.00813 246.73088 
314.00905 38.48035 192.27952 35.27861 210.99629 33.10300 246.92772 
314.45783 38.50584 192.24011 35.27170 211.21562 33.19680 247.32255 
314.90658 38.47668 192.57970 35.26410 211.79834 33.15296 247.55449 
315.35530 38.50541 192.39205 35.29419 211.66196 33.25068 247.83210 
315.80398 38.53570 192.67476 35.34205 212.14232 33.36738 248.27954 
316.25263 38.49035 192.58236 35.27824 212.26454 33.44697 248.62012 
316.70125 38.38826 193.07266 35.34156 212.60146 33.39480 248.77314 
317.14984 38.51587 193.41958 35.26629 213.09767 33.46301 249.06449 
317.59840 38.45272 193.34784 35.31869 213.32392 33.42590 249.61523 
318.04692 38.39327 193.58103 35.41015 213.30653 33.54889 249.79235 
318.49542 38.35787 193.94610 35.25688 213.75823 33.64986 249.95761 
318.94388 38.35578 193.70970 35.36572 214.32651 33.67939 250.43042 
319.39231 38.37061 194.54700 35.40929 214.38623 33.54833 250.92013 
319.84071 38.43348 194.31861 35.32232 214.42599 33.70724 250.78358 
320.28908 38.41670 194.26761 35.39191 214.65798 33.84751 251.15090 
320.73742 38.43927 194.73518 35.38604 214.88856 33.80470 251.40395 
321.18572 38.42885 195.03359 35.36967 215.06093 33.83320 251.70684 
